Time(s),Position(V)
0.337000,1.483416
3.355000,1.471695
6.353000,1.477712
9.353000,1.484089
12.353000,1.498285
15.353000,1.479510
18.353000,1.472031
21.352000,1.471284
24.352000,1.471301
27.352000,1.491323
30.352000,1.474156
33.352000,1.481801
36.350000,1.490813
39.350000,1.480673
42.351000,1.472171
45.351000,1.466636
48.351000,1.461867
51.350000,1.463502
54.350000,1.485714
57.350000,1.445631
60.349000,1.433947
63.349000,1.481849
66.349000,1.486734
69.349000,1.475495
72.349000,1.459035
75.349000,1.480646
78.347000,1.477885
81.348000,1.454443
84.348000,1.462785
87.348000,1.464678
90.348000,1.451444
93.346000,1.451482
96.346000,1.458882
99.347000,1.450295
102.347000,1.446739
105.347000,1.441392
108.345000,1.457577
111.345000,1.449534
114.345000,1.434637
117.345000,1.434138
120.346000,1.422338
123.346000,1.419958
126.344000,1.404980
129.344000,1.415923
132.343000,1.406599
135.343000,1.405439
138.344000,1.384335
141.344000,1.368511
144.344000,1.352163
147.344000,1.336237
150.342000,1.313892
153.342000,1.288134
156.342000,1.259946
159.343000,1.231448
162.343000,1.197800
165.341000,1.165390
168.341000,1.132864
171.341000,1.094399
174.341000,1.055169
177.342000,1.012781
180.340000,0.969068
183.340000,0.923708
186.340000,0.877064
189.340000,0.828129
192.340000,0.775291
195.338000,0.725251
198.339000,0.673556
201.339000,0.614612
204.339000,0.556356
207.339000,0.497970
210.339000,0.438473
213.337000,0.377174
216.338000,0.311771
219.338000,0.247773
222.338000,0.181535
225.338000,0.114582
228.336000,0.046029
231.336000,-0.020842
234.336000,-0.089657
237.337000,-0.159611
240.337000,-0.232928
243.335000,-0.308674
246.335000,-0.380260
249.335000,-0.454389
252.335000,-0.529945
255.336000,-0.607963
258.336000,-0.683203
261.334000,-0.758613
264.334000,-0.833711
267.334000,-0.911351
270.334000,-0.986979
273.334000,-1.064783
276.333000,-1.142368
279.333000,-1.220169
282.333000,-1.299747
285.333000,-1.380858
288.333000,-1.460368
291.331000,-1.542737
294.332000,-1.622580
297.332000,-1.697854
300.332000,-1.770616
303.332000,-1.840597
306.331000,-1.910395
309.331000,-1.984905
312.331000,-2.063520
315.331000,-2.147290
318.331000,-2.229190
321.331000,-2.307092
324.330000,-2.377570
327.330000,-2.441102
330.328000,-2.499620
333.329000,-2.564475
336.329000,-2.630574
339.329000,-2.709337
342.329000,-2.788272
345.329000,-2.858821
348.327000,-2.921035
351.327000,-2.973308
354.328000,-3.025864
357.328000,-3.077852
360.328000,-3.137754
363.326000,-3.203214
366.326000,-3.273579
369.326000,-3.336887
372.327000,-3.389671
375.326000,-3.432198
378.326000,-3.472621
381.326000,-3.510233
384.326000,-3.555024
387.324000,-3.598085
390.325000,-3.650202
393.325000,-3.703002
396.325000,-3.752754
399.325000,-3.794468
402.323000,-3.825839
405.323000,-3.855098
408.323000,-3.880825
411.324000,-3.903139
414.324000,-3.923702
417.324000,-3.945299
420.322000,-3.967538
423.322000,-3.987786
426.322000,-4.009508
429.323000,-4.027875
432.323000,-4.051471
435.321000,-4.064532
438.321000,-4.081709
441.321000,-4.095494
444.321000,-4.109004
447.320000,-4.116676
450.321000,-4.118012
453.321000,-4.120045
456.321000,-4.107226
459.319000,-4.107161
462.320000,-4.096925
465.318000,-4.090306
468.319000,-4.082002
471.319000,-4.069451
474.319000,-4.055788
477.319000,-4.038403
480.319000,-4.022409
483.317000,-4.002475
486.317000,-3.979409
489.318000,-3.956755
492.318000,-3.928730
495.318000,-3.910815
498.316000,-3.900984
501.316000,-3.867972
504.316000,-3.849954
507.317000,-3.821769
510.317000,-3.807145
513.315000,-3.773925
516.315000,-3.737878
519.315000,-3.698301
522.315000,-3.647030
525.315000,-3.600781
528.316000,-3.556268
531.314000,-3.511541
534.314000,-3.472325
537.314000,-3.436237
540.314000,-3.403772
543.314000,-3.363695
546.313000,-3.323517
549.313000,-3.269894
552.313000,-3.211457
555.313000,-3.146823
558.313000,-3.089913
561.311000,-3.036521
564.311000,-2.988888
567.312000,-2.946480
570.312000,-2.903374
573.312000,-2.851332
576.310000,-2.794428
579.310000,-2.731936
582.310000,-2.665497
585.311000,-2.599585
588.311000,-2.543820
591.311000,-2.488773
594.309000,-2.436730
597.309000,-2.386748
600.309000,-2.335845
603.309000,-2.278302
606.310000,-2.212560
609.308000,-2.153742
612.308000,-2.086497
615.308000,-2.021432
618.308000,-1.957009
621.308000,-1.897290
624.307000,-1.839550
627.307000,-1.785016
630.307000,-1.731074
633.307000,-1.682737
636.307000,-1.629331
639.306000,-1.576660
642.306000,-1.511159
645.307000,-1.449653
648.305000,-1.397423
651.305000,-1.338361
654.305000,-1.281155
657.305000,-1.222324
660.305000,-1.169755
663.304000,-1.120486
666.304000,-1.066013
669.304000,-1.019638
672.304000,-0.971464
675.304000,-0.925639
678.304000,-0.879090
681.302000,-0.832477
684.303000,-0.789164
687.303000,-0.742180
690.303000,-0.700976
693.303000,-0.657663
696.301000,-0.630603
699.301000,-0.572129
702.302000,-0.534419
705.302000,-0.490729
708.302000,-0.455048
711.302000,-0.423338
714.300000,-0.387209
717.300000,-0.356216
720.300000,-0.322415
723.301000,-0.294900
726.301000,-0.263077
729.299000,-0.233081
732.299000,-0.211378
735.299000,-0.189282
738.299000,-0.164136
741.300000,-0.143447
744.298000,-0.121235
747.298000,-0.112196
750.298000,-0.089746
753.298000,-0.068771
756.298000,-0.075771
759.299000,-0.053052
762.297000,-0.040909
765.297000,-0.022871
768.297000,-0.038954
771.297000,-0.013662
774.297000,-0.016001
777.295000,-0.007129
780.296000,-0.025921
783.296000,-0.017677
786.296000,-0.016824
789.296000,-0.016416
792.294000,-0.030779
795.294000,-0.036775
798.295000,-0.047266
801.295000,-0.057233
804.295000,-0.068417
807.293000,-0.082552
810.293000,-0.097510
813.293000,-0.110064
816.293000,-0.128646
819.294000,-0.143161
822.294000,-0.155882
825.292000,-0.176469
828.292000,-0.199025
831.292000,-0.219105
834.292000,-0.242449
837.293000,-0.268775
840.291000,-0.294798
843.291000,-0.317683
846.291000,-0.346065
849.291000,-0.379094
852.291000,-0.406657
855.289000,-0.439441
858.290000,-0.470060
861.290000,-0.502784
864.290000,-0.537169
867.290000,-0.573033
870.290000,-0.608816
873.288000,-0.646000
876.289000,-0.684386
879.289000,-0.724697
882.289000,-0.763012
885.289000,-0.800073
888.287000,-0.838994
891.288000,-0.880569
894.286000,-0.922722
897.287000,-0.963322
900.287000,-1.007002
903.287000,-1.049920
906.287000,-1.091173
909.287000,-1.134461
912.285000,-1.178399
915.286000,-1.222446
918.286000,-1.269746
921.286000,-1.317519
924.286000,-1.365030
927.284000,-1.410804
930.284000,-1.454283
933.284000,-1.505995
936.285000,-1.556668
939.285000,-1.603512
942.283000,-1.648028
945.283000,-1.694291
948.283000,-1.740211
951.283000,-1.782660
954.284000,-1.824096
957.284000,-1.866274
960.282000,-1.910218
963.282000,-1.954034
966.282000,-1.998013
969.282000,-2.045038
972.282000,-2.091848
975.281000,-2.139723
978.281000,-2.189834
981.281000,-2.237668
984.281000,-2.283132
987.281000,-2.327642
990.279000,-2.366378
993.280000,-2.403966
996.280000,-2.437312
999.280000,-2.471809
1002.280000,-2.505495
1005.280000,-2.539775
1008.278000,-2.574470
1011.278000,-2.610562
1014.279000,-2.649084
1017.279000,-2.691071
1020.279000,-2.732449
1023.277000,-2.769436
1026.277000,-2.807057
1029.277000,-2.840671
1032.278000,-2.874646
1035.278000,-2.900750
1038.276000,-2.925794
1041.276000,-2.947880
1044.276000,-2.969127
1047.276000,-2.991607
1050.276000,-3.012857
1053.275000,-3.033822
1056.275000,-3.049344
1059.275000,-3.069724
1062.275000,-3.088271
1065.275000,-3.104633
1068.275000,-3.124482
1071.274000,-3.143271
1074.274000,-3.161033
1077.274000,-3.175790
1080.274000,-3.191163
1083.274000,-3.204788
1086.272000,-3.216563
1089.273000,-3.231541
1092.273000,-3.244102
1095.273000,-3.248950
1098.273000,-3.257792
1101.271000,-3.262143
1104.271000,-3.260165
1107.271000,-3.268296
1110.272000,-3.270156
1113.272000,-3.271142
1116.272000,-3.265339
1119.270000,-3.248634
1122.270000,-3.246336
1125.270000,-3.228054
1128.271000,-3.229801
1131.271000,-3.221897
1134.269000,-3.209122
1137.269000,-3.196170
1140.269000,-3.184605
1143.268000,-3.168199
1146.268000,-3.151477
1149.269000,-3.131261
1152.269000,-3.113233
1155.269000,-3.092942
1158.267000,-3.081472
1161.267000,-3.060548
1164.267000,-3.044234
1167.267000,-3.026853
1170.267000,-3.009142
1173.267000,-2.994089
1176.267000,-2.970653
1179.267000,-2.957691
1182.265000,-2.938804
1185.265000,-2.912533
1188.266000,-2.889647
1191.266000,-2.867877
1194.266000,-2.838163
1197.264000,-2.811878
1200.264000,-2.784196
1203.264000,-2.750018
1206.265000,-2.715653
1209.265000,-2.675440
1212.263000,-2.643669
1215.263000,-2.604956
1218.263000,-2.571533
1221.262000,-2.538354
1224.262000,-2.509401
1227.263000,-2.482572
1230.263000,-2.453867
1233.263000,-2.424084
1236.261000,-2.391592
1239.261000,-2.360297
1242.261000,-2.328471
1245.262000,-2.296747
1248.262000,-2.262450
1251.262000,-2.223465
1254.260000,-2.181869
1257.260000,-2.143880
1260.260000,-2.101346
1263.260000,-2.062728
1266.261000,-2.024729
1269.259000,-1.989232
1272.259000,-1.944852
1275.259000,-1.908981
1278.259000,-1.876105
1281.259000,-1.837178
1284.258000,-1.808187
1287.258000,-1.775535
1290.258000,-1.741891
1293.258000,-1.710490
1296.258000,-1.681985
1299.258000,-1.649779
1302.256000,-1.616206
1305.257000,-1.587484
1308.257000,-1.544035
1311.257000,-1.511900
1314.257000,-1.472018
1317.255000,-1.447249
1320.255000,-1.413911
1323.256000,-1.375799
1326.256000,-1.341917
1329.256000,-1.308877
1332.254000,-1.289045
1335.254000,-1.250172
1338.255000,-1.220250
1341.253000,-1.202151
1344.254000,-1.169374
1347.254000,-1.139951
1350.254000,-1.120554
1353.254000,-1.088116
1356.252000,-1.066496
1359.252000,-1.045202
1362.253000,-1.027467
1365.253000,-1.001658
1368.252000,-0.976893
1371.252000,-0.968673
1374.252000,-0.942038
1377.252000,-0.924177
1380.250000,-0.906908
1383.251000,-0.899800
1386.251000,-0.873434
1389.251000,-0.870136
1392.251000,-0.847061
1395.249000,-0.836570
1398.249000,-0.831648
1401.250000,-0.806865
1404.250000,-0.800566
1407.250000,-0.794508
1410.250000,-0.785928
1413.248000,-0.777372
1416.248000,-0.764549
1419.248000,-0.766007
1422.249000,-0.751155
1425.249000,-0.754215
1428.247000,-0.759861
1431.247000,-0.738332
1434.247000,-0.732910
1437.247000,-0.743309
1440.248000,-0.751570
1443.246000,-0.758328
1446.246000,-0.753800
1449.246000,-0.759790
1452.246000,-0.761486
1455.246000,-0.766640
1458.246000,-0.774513
1461.245000,-0.781043
1464.245000,-0.788063
1467.245000,-0.794175
1470.245000,-0.800961
1473.245000,-0.809483
1476.243000,-0.824359
1479.244000,-0.827827
1482.244000,-0.845235
1485.243000,-0.858581
1488.243000,-0.871884
1491.243000,-0.885607
1494.243000,-0.902958
1497.244000,-0.921016
1500.242000,-0.932027
1503.242000,-0.949813
1506.242000,-0.967796
1509.242000,-0.984970
1512.242000,-1.002287
1515.240000,-1.026141
1518.241000,-1.043821
1521.241000,-1.061448
1524.241000,-1.082286
1527.241000,-1.106518
1530.239000,-1.127044
1533.239000,-1.148226
1536.240000,-1.169102
1539.240000,-1.195206
1542.240000,-1.220580
1545.240000,-1.245274
1548.238000,-1.270120
1551.238000,-1.297785
1554.238000,-1.322621
1557.239000,-1.350674
1560.239000,-1.375667
1563.237000,-1.405429
1566.237000,-1.431231
1569.237000,-1.456139
1572.237000,-1.487081
1575.238000,-1.519800
1578.236000,-1.548169
1581.236000,-1.575259
1584.236000,-1.606007
1587.235000,-1.630531
1590.235000,-1.658057
1593.235000,-1.685222
1596.236000,-1.714161
1599.236000,-1.739882
1602.234000,-1.767489
1605.234000,-1.790496
1608.234000,-1.815112
1611.234000,-1.842661
1614.235000,-1.865791
1617.233000,-1.893687
1620.233000,-1.919951
1623.233000,-1.944471
1626.233000,-1.971392
1629.233000,-1.998720
1632.233000,-2.023403
1635.232000,-2.050772
1638.232000,-2.077411
1641.232000,-2.107010
1644.232000,-2.134780
1647.232000,-2.161388
1650.230000,-2.188485
1653.231000,-2.216194
1656.231000,-2.239528
1659.231000,-2.265245
1662.231000,-2.290169
1665.229000,-2.313942
1668.229000,-2.334281
1671.229000,-2.354525
1674.230000,-2.372130
1677.230000,-2.391660
1680.230000,-2.408828
1683.229000,-2.426127
1686.229000,-2.438444
1689.227000,-2.457416
1692.228000,-2.469396
1695.228000,-2.484619
1698.228000,-2.499461
1701.228000,-2.510461
1704.228000,-2.525137
1707.226000,-2.539010
1710.226000,-2.551530
1713.227000,-2.559713
1716.227000,-2.572168
1719.227000,-2.585158
1722.225000,-2.595822
1725.225000,-2.603572
1728.225000,-2.613591
1731.226000,-2.622626
1734.226000,-2.630887
1737.224000,-2.638750
1740.224000,-2.647480
1743.224000,-2.654908
1746.224000,-2.659653
1749.224000,-2.659847
1752.225000,-2.666180
1755.223000,-2.672282
1758.223000,-2.675322
1761.223000,-2.662251
1764.223000,-2.658379
1767.223000,-2.664797
1770.222000,-2.673363
1773.222000,-2.670025
1776.222000,-2.651617
1779.222000,-2.651875
1782.222000,-2.660479
1785.220000,-2.641218
1788.220000,-2.627872
1791.221000,-2.619560
1794.221000,-2.616864
1797.221000,-2.604840
1800.221000,-2.597355
1803.219000,-2.603124
1806.220000,-2.600642
1809.219000,-2.587116
1812.219000,-2.584671
1815.219000,-2.558281
1818.219000,-2.548069
1821.219000,-2.535138
1824.217000,-2.532745
1827.217000,-2.508228
1830.218000,-2.504890
1833.218000,-2.486281
1836.218000,-2.482582
1839.218000,-2.468634
1842.216000,-2.451759
1845.216000,-2.442707
1848.217000,-2.429367
1851.217000,-2.411139
1854.217000,-2.390844
1857.215000,-2.373698
1860.215000,-2.364601
1863.215000,-2.346237
1866.216000,-2.336133
1869.216000,-2.311640
1872.214000,-2.293256
1875.215000,-2.274087
1878.215000,-2.259319
1881.213000,-2.232222
1884.213000,-2.207267
1887.214000,-2.187846
1890.214000,-2.171977
1893.214000,-2.145753
1896.212000,-2.126288
1899.212000,-2.095730
1902.212000,-2.073070
1905.213000,-2.051578
1908.212000,-2.028951
1911.212000,-2.008130
1914.212000,-1.981729
1917.212000,-1.964518
1920.210000,-1.937519
1923.210000,-1.914311
1926.211000,-1.908916
1929.211000,-1.873038
1932.211000,-1.851557
1935.211000,-1.832486
1938.209000,-1.811484
1941.209000,-1.788161
1944.210000,-1.784581
1947.210000,-1.763477
1950.210000,-1.739994
1953.208000,-1.725811
1956.208000,-1.707638
1959.208000,-1.688747
1962.208000,-1.665219
1965.209000,-1.651574
1968.207000,-1.636705
1971.207000,-1.611654
1974.207000,-1.591764
1977.207000,-1.570908
1980.207000,-1.549304
1983.206000,-1.537559
1986.206000,-1.513433
1989.206000,-1.496303
1992.206000,-1.478769
1995.206000,-1.466045
1998.206000,-1.450016
2001.204000,-1.442585
2004.205000,-1.417395
2007.205000,-1.393776
2010.205000,-1.388313
2013.205000,-1.368144
2016.203000,-1.358935
2019.203000,-1.347869
2022.204000,-1.330665
2025.204000,-1.312556
2028.204000,-1.301881
2031.202000,-1.295008
2034.202000,-1.284055
2037.202000,-1.268064
2040.202000,-1.255870
2043.203000,-1.250791
2046.203000,-1.261615
2049.201000,-1.232991
2052.201000,-1.226301
2055.201000,-1.219798
2058.201000,-1.214525
2061.202000,-1.208185
2064.200000,-1.198232
2067.200000,-1.189376
2070.201000,-1.187778
2073.199000,-1.196821
2076.199000,-1.202736
2079.199000,-1.175088
2082.200000,-1.182081
2085.200000,-1.193870
2088.198000,-1.183363
2091.198000,-1.168670
2094.198000,-1.168456
2097.198000,-1.173762
2100.199000,-1.191589
2103.197000,-1.190491
2106.197000,-1.197484
2109.197000,-1.199942
2112.197000,-1.200020
2115.197000,-1.203018
2118.195000,-1.201519
2121.196000,-1.210212
2124.196000,-1.216456
2127.196000,-1.220634
2130.196000,-1.228759
2133.196000,-1.230873
2136.194000,-1.237247
2139.195000,-1.246154
2142.195000,-1.251036
2145.195000,-1.257168
2148.195000,-1.270861
2151.193000,-1.277358
2154.193000,-1.287152
2157.193000,-1.298434
2160.194000,-1.307372
2163.194000,-1.318549
2166.192000,-1.325606
2169.192000,-1.337185
2172.192000,-1.351847
2175.192000,-1.363704
2178.193000,-1.373267
2181.193000,-1.386810
2184.191000,-1.399908
2187.191000,-1.413068
2190.191000,-1.425690
2193.191000,-1.437571
2196.191000,-1.451478
2199.190000,-1.469210
2202.190000,-1.482658
2205.190000,-1.500053
2208.190000,-1.517802
2211.190000,-1.532776
2214.188000,-1.547707
2217.189000,-1.561393
2220.189000,-1.577632
2223.189000,-1.591594
2226.189000,-1.609159
2229.187000,-1.620401
2232.187000,-1.639965
2235.188000,-1.652798
2238.188000,-1.668921
2241.188000,-1.686724
2244.188000,-1.704058
2247.186000,-1.718040
2250.186000,-1.734357
2253.186000,-1.746912
2256.187000,-1.763885
2259.187000,-1.777871
2262.185000,-1.791343
2265.185000,-1.806844
2268.185000,-1.820048
2271.185000,-1.837511
2274.186000,-1.848209
2277.186000,-1.865121
2280.184000,-1.878070
2283.184000,-1.896243
2286.184000,-1.911775
2289.184000,-1.924160
2292.184000,-1.939889
2295.183000,-1.951960
2298.183000,-1.967758
2301.183000,-1.981158
2304.183000,-1.999050
2307.183000,-2.012603
2310.181000,-2.027037
2313.182000,-2.039840
2316.182000,-2.055324
2319.182000,-2.069775
2322.182000,-2.086586
2325.182000,-2.101972
2328.180000,-2.112157
2331.180000,-2.126305
2334.181000,-2.139318
2337.181000,-2.150965
2340.181000,-2.164722
2343.179000,-2.176797
2346.179000,-2.187706
2349.179000,-2.200179
2352.180000,-2.213107
2355.180000,-2.222238
2358.178000,-2.229955
2361.178000,-2.241156
2364.178000,-2.251184
2367.178000,-2.260676
2370.178000,-2.265479
2373.177000,-2.271826
2376.177000,-2.280981
2379.177000,-2.284322
2382.177000,-2.291053
2385.177000,-2.299382
2388.177000,-2.301418
2391.176000,-2.305797
2394.176000,-2.311477
2397.176000,-2.313371
2400.176000,-2.312640
2403.176000,-2.312344
2406.174000,-2.319809
2409.174000,-2.321699
2412.175000,-2.324001
2415.175000,-2.322172
2418.175000,-2.321193
2421.173000,-2.319092
2424.173000,-2.316760
2427.173000,-2.322050
2430.174000,-2.313792
2433.174000,-2.299885
2436.174000,-2.306171
2439.172000,-2.311617
2442.172000,-2.304671
2445.172000,-2.290625
2448.172000,-2.291842
2451.173000,-2.289299
2454.171000,-2.275888
2457.171000,-2.278387
2460.171000,-2.268749
2463.171000,-2.268518
2466.171000,-2.255247
2469.170000,-2.248502
2472.170000,-2.238304
2475.170000,-2.247533
2478.170000,-2.219685
2481.170000,-2.215085
2484.168000,-2.208419
2487.168000,-2.191065
2490.169000,-2.187546
2493.169000,-2.184541
2496.169000,-2.167782
2499.169000,-2.149486
2502.167000,-2.157716
2505.167000,-2.132278
2508.168000,-2.116402
2511.168000,-2.109077
2514.168000,-2.093881
2517.166000,-2.081538
2520.166000,-2.080358
2523.166000,-2.055664
2526.166000,-2.049555
2529.167000,-2.032320
2532.165000,-2.017512
2535.165000,-2.004717
2538.165000,-1.987998
2541.165000,-1.984007
2544.165000,-1.968125
2547.166000,-1.949547
2550.164000,-1.940127
2553.164000,-1.928273
2556.164000,-1.908719
2559.164000,-1.903878
2562.164000,-1.892249
2565.163000,-1.883121
2568.164000,-1.864965
2571.164000,-1.850568
2574.163000,-1.835729
2577.163000,-1.827717
2580.161000,-1.817957
2583.161000,-1.819239
2586.162000,-1.799097
2589.162000,-1.792573
2592.162000,-1.772156
2595.160000,-1.756066
2598.160000,-1.745385
2601.160000,-1.745130
2604.161000,-1.740748
2607.161000,-1.729054
2610.161000,-1.704871
2613.159000,-1.689070
2616.159000,-1.674530
2619.159000,-1.668802
2622.159000,-1.655725
2625.160000,-1.660246
2628.158000,-1.637847
2631.158000,-1.627444
2634.158000,-1.631881
2637.158000,-1.612939
2640.158000,-1.606616
2643.157000,-1.586739
2646.157000,-1.569752
2649.157000,-1.561440
2652.157000,-1.554410
2655.157000,-1.549587
2658.157000,-1.528428
2661.155000,-1.523186
