Time(s),Position(V)
0.357000,0.605118
3.372000,0.598536
6.373000,0.593369
9.371000,0.587675
12.371000,0.584113
15.371000,0.581682
18.371000,0.573360
21.371000,0.566422
24.370000,0.561360
27.371000,0.554326
30.371000,0.552963
33.369000,0.554690
36.369000,0.548792
39.369000,0.543486
42.369000,0.540800
45.370000,0.542282
48.370000,0.532080
51.368000,0.533236
54.368000,0.524948
57.368000,0.535493
60.368000,0.533059
63.368000,0.522970
66.367000,0.523534
69.367000,0.523072
72.367000,0.523228
75.367000,0.516392
78.367000,0.512646
81.365000,0.513254
84.366000,0.511235
87.366000,0.516688
90.366000,0.532845
93.366000,0.514029
96.364000,0.531683
99.364000,0.529279
102.364000,0.515579
105.365000,0.523731
108.365000,0.540861
111.365000,0.542534
114.363000,0.541646
117.363000,0.529653
120.363000,0.548265
123.364000,0.543968
126.364000,0.548959
129.362000,0.563457
132.362000,0.563910
135.362000,0.554904
138.362000,0.568604
141.362000,0.575910
144.362000,0.554197
147.362000,0.576076
150.362000,0.589929
153.360000,0.585071
156.360000,0.594817
159.360000,0.599995
162.361000,0.588777
165.361000,0.600590
168.359000,0.611563
171.359000,0.610486
174.359000,0.635478
177.359000,0.633340
180.360000,0.629862
183.360000,0.651826
186.358000,0.639242
189.358000,0.666430
192.358000,0.662018
195.358000,0.667141
198.358000,0.689900
201.357000,0.697804
204.357000,0.706201
207.357000,0.710579
210.357000,0.717184
213.357000,0.719319
216.355000,0.730354
219.356000,0.739628
222.357000,0.744152
225.355000,0.744819
228.355000,0.757407
231.355000,0.758359
234.355000,0.787546
237.355000,0.773344
240.354000,0.796038
243.354000,0.799638
246.354000,0.814841
249.354000,0.824788
252.354000,0.819556
255.352000,0.839456
258.353000,0.840537
261.353000,0.849417
264.353000,0.857524
267.353000,0.866003
270.353000,0.882660
273.351000,0.878927
276.351000,0.892787
279.352000,0.897206
282.352000,0.905953
285.352000,0.890499
288.350000,0.920156
291.350000,0.931367
294.350000,0.933094
297.351000,0.944748
300.351000,0.947535
303.349000,0.952488
306.349000,0.961038
309.349000,0.945132
312.349000,0.959199
315.349000,0.979364
318.350000,0.973143
321.348000,0.972691
324.348000,0.979361
327.348000,0.971814
330.348000,0.997596
333.348000,1.003926
336.347000,1.011309
339.347000,0.992432
342.347000,1.011401
345.347000,1.006693
348.347000,1.005520
351.345000,1.026719
354.345000,1.020134
357.346000,1.020430
360.346000,1.038165
363.346000,1.019383
366.344000,1.031454
369.344000,1.044655
372.344000,1.048649
375.344000,1.043750
378.344000,1.041728
381.344000,1.045742
384.344000,1.060890
387.344000,1.040813
390.344000,1.038298
393.342000,1.049172
396.343000,1.059813
399.343000,1.041252
402.343000,1.029738
405.343000,1.039871
408.341000,1.049040
411.341000,1.059714
414.342000,1.036785
417.342000,1.031594
420.342000,1.035734
423.340000,1.023445
426.340000,1.032478
429.340000,1.037706
432.341000,1.017404
435.341000,1.008522
438.341000,0.994227
441.339000,0.975469
444.339000,0.959746
447.339000,0.941607
450.339000,0.919415
453.340000,0.893977
456.338000,0.869592
459.338000,0.839854
462.338000,0.809170
465.338000,0.773904
468.338000,0.742806
471.336000,0.706622
474.338000,0.670160
477.338000,0.629465
480.336000,0.586628
483.336000,0.543224
486.336000,0.498983
489.336000,0.453682
492.337000,0.408017
495.335000,0.359466
498.335000,0.306305
501.335000,0.251754
504.335000,0.200905
507.335000,0.145834
510.334000,0.091585
513.334000,0.037479
516.334000,-0.019363
519.333000,-0.078602
522.333000,-0.135047
525.333000,-0.194551
528.333000,-0.255633
531.334000,-0.318077
534.332000,-0.379373
537.332000,-0.443953
540.332000,-0.508321
543.332000,-0.573095
546.332000,-0.638745
549.333000,-0.704841
552.331000,-0.770376
555.331000,-0.832348
558.331000,-0.897577
561.331000,-0.960507
564.331000,-1.025964
567.329000,-1.089259
570.330000,-1.157768
573.330000,-1.222110
576.330000,-1.288161
579.330000,-1.356018
582.328000,-1.421155
585.328000,-1.489906
588.329000,-1.558061
591.329000,-1.621985
594.329000,-1.683879
597.327000,-1.746500
600.327000,-1.800236
603.327000,-1.858200
606.327000,-1.920339
609.328000,-1.979924
612.328000,-2.046397
615.326000,-2.113435
618.326000,-2.179374
621.326000,-2.243988
624.326000,-2.301037
627.327000,-2.355055
630.325000,-2.404578
633.325000,-2.450410
636.325000,-2.496238
639.325000,-2.544884
642.325000,-2.597389
645.323000,-2.652926
648.324000,-2.712869
651.324000,-2.768939
654.324000,-2.820516
657.324000,-2.865858
660.324000,-2.906114
663.322000,-2.941122
666.323000,-2.977853
669.323000,-3.012511
672.323000,-3.046675
675.323000,-3.083495
678.321000,-3.121953
681.321000,-3.163573
684.321000,-3.207524
687.322000,-3.245877
690.322000,-3.282598
693.320000,-3.316868
696.320000,-3.342972
699.320000,-3.368978
702.320000,-3.392275
705.321000,-3.408211
708.319000,-3.422958
711.319000,-3.441380
714.319000,-3.455226
717.319000,-3.469786
720.319000,-3.480120
723.319000,-3.487728
726.319000,-3.497746
729.319000,-3.507540
732.317000,-3.520465
735.317000,-3.525401
738.317000,-3.531347
741.317000,-3.531493
744.318000,-3.532778
747.318000,-3.536106
750.316000,-3.509835
753.316000,-3.525126
756.316000,-3.510290
759.316000,-3.497226
762.316000,-3.512068
765.315000,-3.479240
768.315000,-3.479097
771.315000,-3.460750
774.315000,-3.451898
777.315000,-3.435244
780.315000,-3.418797
783.314000,-3.411203
786.314000,-3.398254
789.314000,-3.379095
792.314000,-3.360751
795.314000,-3.342265
798.312000,-3.323905
801.312000,-3.307530
804.313000,-3.269303
807.313000,-3.243439
810.313000,-3.201001
813.312000,-3.165401
816.312000,-3.124333
819.312000,-3.083066
822.311000,-3.050173
825.311000,-3.019758
828.311000,-2.984917
831.311000,-2.958092
834.311000,-2.921674
837.309000,-2.890834
840.309000,-2.861408
843.310000,-2.823395
846.310000,-2.784118
849.310000,-2.741536
852.308000,-2.691724
855.308000,-2.639267
858.308000,-2.590977
861.309000,-2.542120
864.309000,-2.493301
867.309000,-2.455761
870.307000,-2.424407
873.307000,-2.379711
876.307000,-2.342405
879.308000,-2.300293
882.308000,-2.257732
885.306000,-2.209470
888.306000,-2.161435
891.306000,-2.107136
894.306000,-2.053210
897.306000,-2.002908
900.305000,-1.951597
903.305000,-1.904331
906.305000,-1.859352
909.305000,-1.811631
912.305000,-1.769974
915.304000,-1.727861
918.305000,-1.687044
921.305000,-1.643337
924.303000,-1.603414
927.303000,-1.560118
930.303000,-1.510605
933.303000,-1.466354
936.303000,-1.422899
939.304000,-1.378111
942.302000,-1.330165
945.302000,-1.286662
948.302000,-1.241051
951.302000,-1.198606
954.302000,-1.154844
957.301000,-1.121639
960.301000,-1.082052
963.301000,-1.044940
966.301000,-1.011663
969.301000,-0.972123
972.299000,-0.938972
975.299000,-0.903091
978.300000,-0.873451
981.300000,-0.838956
984.300000,-0.826725
987.298000,-0.783729
990.299000,-0.752746
993.299000,-0.720951
996.298000,-0.690403
999.298000,-0.660253
1002.298000,-0.639762
1005.298000,-0.613997
1008.298000,-0.585707
1011.296000,-0.557012
1014.296000,-0.534939
1017.298000,-0.510402
1020.296000,-0.493272
1023.296000,-0.476176
1026.296000,-0.468262
1029.296000,-0.442800
1032.296000,-0.440455
1035.295000,-0.415101
1038.295000,-0.399229
1041.295000,-0.393341
1044.295000,-0.403026
1047.295000,-0.395490
1050.295000,-0.386903
1053.293000,-0.361584
1056.294000,-0.358796
1059.294000,-0.351589
1062.294000,-0.367930
1065.294000,-0.368824
1068.292000,-0.350610
1071.292000,-0.362631
1074.293000,-0.368875
1077.293000,-0.380230
1080.293000,-0.384690
1083.291000,-0.391951
1086.291000,-0.396156
1089.291000,-0.402058
1092.291000,-0.411838
1095.292000,-0.422968
1098.290000,-0.434298
1101.290000,-0.450636
1104.291000,-0.464346
1107.289000,-0.477662
1110.289000,-0.491834
1113.290000,-0.511173
1116.290000,-0.526189
1119.290000,-0.546015
1122.288000,-0.563998
1125.288000,-0.588029
1128.288000,-0.607405
1131.288000,-0.632765
1134.289000,-0.654104
1137.289000,-0.679804
1140.287000,-0.706622
1143.287000,-0.731615
1146.287000,-0.758246
1149.287000,-0.784606
1152.288000,-0.807165
1155.286000,-0.836046
1158.286000,-0.866696
1161.286000,-0.898032
1164.286000,-0.930337
1167.286000,-0.960134
1170.286000,-0.992374
1173.285000,-1.027732
1176.285000,-1.054659
1179.285000,-1.088106
1182.285000,-1.123352
1185.285000,-1.156072
1188.283000,-1.190620
1191.284000,-1.228150
1194.284000,-1.262308
1197.284000,-1.301463
1200.284000,-1.338885
1203.282000,-1.377421
1206.282000,-1.415202
1209.283000,-1.449690
1212.282000,-1.490524
1215.282000,-1.531141
1218.282000,-1.568219
1221.282000,-1.604770
1224.282000,-1.640179
1227.280000,-1.673283
1230.282000,-1.712346
1233.282000,-1.747044
1236.280000,-1.780760
1239.280000,-1.812226
1242.280000,-1.846601
1245.280000,-1.878631
1248.281000,-1.916630
1251.281000,-1.951107
1254.279000,-1.986784
1257.279000,-2.024950
1260.279000,-2.063425
1263.279000,-2.102166
1266.277000,-2.139053
1269.278000,-2.177334
1272.278000,-2.215857
1275.278000,-2.250171
1278.278000,-2.283445
1281.278000,-2.315686
1284.276000,-2.344024
1287.277000,-2.371960
1290.277000,-2.397783
1293.277000,-2.425505
1296.277000,-2.449257
1299.275000,-2.474016
1302.275000,-2.498308
1305.275000,-2.524232
1308.276000,-2.549130
1311.276000,-2.575031
1314.274000,-2.600224
1317.274000,-2.627274
1320.274000,-2.651933
1323.274000,-2.681447
1326.275000,-2.709486
1329.273000,-2.735023
1332.273000,-2.757106
1335.273000,-2.779960
1338.273000,-2.800442
1341.273000,-2.821488
1344.273000,-2.836912
1347.272000,-2.850968
1350.273000,-2.869349
1353.271000,-2.878817
1356.271000,-2.889692
1359.271000,-2.902946
1362.271000,-2.911013
1365.272000,-2.915001
1368.272000,-2.921854
1371.270000,-2.932865
1374.270000,-2.938467
1377.270000,-2.943474
1380.270000,-2.945463
1383.270000,-2.951130
1386.269000,-2.943876
1389.269000,-2.949522
1392.269000,-2.955451
1395.269000,-2.941527
1398.269000,-2.933528
1401.267000,-2.933698
1404.268000,-2.940830
1407.268000,-2.944494
1410.268000,-2.927290
1413.268000,-2.942217
1416.268000,-2.920984
1419.266000,-2.909850
1422.266000,-2.901573
1425.267000,-2.910258
1428.267000,-2.891945
1431.267000,-2.883165
1434.265000,-2.874846
1437.265000,-2.861673
1440.265000,-2.849653
1443.266000,-2.834168
1446.266000,-2.822766
1449.264000,-2.806418
1452.264000,-2.791162
1455.264000,-2.772264
1458.264000,-2.760951
1461.264000,-2.738997
1464.263000,-2.715510
1467.263000,-2.692227
1470.263000,-2.673258
1473.263000,-2.644424
1476.263000,-2.616256
1479.263000,-2.593660
1482.262000,-2.572362
1485.262000,-2.545547
1488.261000,-2.520483
1491.261000,-2.496792
1494.261000,-2.476079
1497.261000,-2.455006
1500.261000,-2.429710
1503.262000,-2.408698
1506.260000,-2.385470
1509.260000,-2.360531
1512.260000,-2.337534
1515.260000,-2.316648
1518.260000,-2.290581
1521.259000,-2.261610
1524.259000,-2.233075
1527.259000,-2.204901
1530.259000,-2.171351
1533.259000,-2.140019
1536.257000,-2.105381
1539.257000,-2.073369
1542.258000,-2.040578
1545.258000,-2.007681
1548.258000,-1.973771
1551.258000,-1.946633
1554.256000,-1.912557
1557.256000,-1.883930
1560.257000,-1.856051
1563.257000,-1.822692
1566.257000,-1.795201
1569.255000,-1.771282
1572.255000,-1.749951
1575.255000,-1.724584
1578.255000,-1.697174
1581.256000,-1.673099
1584.254000,-1.649544
1587.254000,-1.623440
1590.254000,-1.592950
1593.254000,-1.568528
1596.254000,-1.536577
1599.255000,-1.511730
1602.253000,-1.484504
1605.253000,-1.457159
1608.253000,-1.434369
1611.253000,-1.407758
1614.253000,-1.374776
1617.252000,-1.348185
1620.252000,-1.325035
1623.252000,-1.301123
1626.252000,-1.281332
1629.252000,-1.251835
1632.250000,-1.227311
1635.250000,-1.208281
1638.251000,-1.188428
1641.251000,-1.166389
1644.251000,-1.145754
1647.251000,-1.126976
1650.249000,-1.111685
1653.249000,-1.099256
1656.250000,-1.077272
1659.250000,-1.060044
1662.250000,-1.046303
1665.248000,-1.036339
1668.248000,-1.021072
1671.248000,-1.013808
1674.248000,-0.996552
1677.248000,-0.983709
1680.248000,-0.967504
1683.247000,-0.975380
1686.247000,-0.956703
1689.247000,-0.948184
1692.247000,-0.939662
1695.246000,-0.955092
1698.246000,-0.928804
1701.246000,-0.931690
1704.246000,-0.928774
1707.246000,-0.905508
1710.246000,-0.902455
1713.244000,-0.915652
1716.245000,-0.919177
1719.245000,-0.899776
1722.245000,-0.914448
1725.245000,-0.913551
1728.243000,-0.911300
1731.243000,-0.911640
1734.244000,-0.921798
1737.244000,-0.924660
1740.243000,-0.929154
1743.243000,-0.933859
1746.243000,-0.940434
1749.243000,-0.943242
1752.241000,-0.948541
1755.242000,-0.949014
1758.242000,-0.963985
1761.242000,-0.972718
1764.242000,-0.980840
1767.240000,-0.990780
1770.240000,-1.001947
1773.241000,-1.011588
1776.241000,-1.028551
1779.241000,-1.037308
1782.241000,-1.046827
1785.239000,-1.060465
1788.239000,-1.076562
1791.239000,-1.085937
1794.240000,-1.104886
1797.240000,-1.122876
1800.238000,-1.127200
1803.238000,-1.150089
1806.238000,-1.164390
1809.238000,-1.182343
1812.239000,-1.201536
1815.237000,-1.219628
1818.237000,-1.240827
1821.237000,-1.254850
1824.237000,-1.278282
1827.237000,-1.298914
1830.235000,-1.319698
1833.236000,-1.341336
1836.236000,-1.362004
1839.236000,-1.380273
1842.236000,-1.405120
1845.236000,-1.425612
1848.234000,-1.447480
1851.235000,-1.468730
1854.235000,-1.492074
1857.235000,-1.519851
1860.235000,-1.541506
1863.233000,-1.563616
1866.233000,-1.583387
1869.233000,-1.606215
1872.234000,-1.626129
1875.234000,-1.650489
1878.234000,-1.671209
1881.232000,-1.694580
1884.232000,-1.718530
1887.232000,-1.737842
1890.233000,-1.760482
1893.233000,-1.779917
1896.231000,-1.798029
1899.231000,-1.819385
1902.231000,-1.839292
1905.231000,-1.858999
1908.231000,-1.880725
1911.230000,-1.903277
1914.230000,-1.925183
1917.230000,-1.945916
1920.230000,-1.965123
1923.230000,-1.989069
1926.228000,-2.012722
1929.229000,-2.030593
1932.229000,-2.053387
1935.229000,-2.076659
1938.229000,-2.099874
1941.229000,-2.118840
1944.227000,-2.141171
1947.227000,-2.159960
1950.228000,-2.181665
1953.228000,-2.201566
1956.228000,-2.221823
1959.226000,-2.239589
1962.226000,-2.259873
1965.226000,-2.273067
1968.227000,-2.288799
1971.227000,-2.304535
1974.225000,-2.315866
1977.225000,-2.332340
1980.225000,-2.346356
1983.225000,-2.356336
1986.226000,-2.368901
1989.226000,-2.380445
1992.224000,-2.392718
1995.224000,-2.401237
1998.223000,-2.412428
2001.223000,-2.421956
2004.223000,-2.427198
2007.224000,-2.434249
2010.224000,-2.441350
2013.224000,-2.448734
2016.222000,-2.455998
2019.222000,-2.449937
2022.222000,-2.467220
2025.223000,-2.474430
2028.223000,-2.477575
2031.221000,-2.475362
2034.221000,-2.475192
2037.221000,-2.488225
2040.221000,-2.492036
2043.221000,-2.491723
2046.220000,-2.494892
2049.220000,-2.493042
2052.220000,-2.480719
2055.220000,-2.466975
2058.220000,-2.473880
2061.218000,-2.486964
2064.219000,-2.477215
2067.219000,-2.464922
2070.219000,-2.481705
2073.219000,-2.466401
2076.219000,-2.463722
2079.217000,-2.452303
2082.217000,-2.442530
2085.218000,-2.438668
2088.218000,-2.434884
2091.218000,-2.428646
2094.216000,-2.440779
2097.216000,-2.413896
2100.216000,-2.409015
2103.217000,-2.397919
2106.217000,-2.390470
2109.215000,-2.379507
2112.215000,-2.379341
2115.215000,-2.365066
2118.215000,-2.352444
2121.215000,-2.346050
2124.216000,-2.334726
2127.214000,-2.330082
2130.214000,-2.315339
2133.214000,-2.306279
2136.214000,-2.300568
2139.214000,-2.274620
2142.213000,-2.269497
2145.213000,-2.255335
2148.213000,-2.232654
2151.213000,-2.217815
2154.213000,-2.204496
2157.211000,-2.182804
2160.211000,-2.170600
2163.212000,-2.151475
2166.212000,-2.130350
2169.212000,-2.110158
2172.210000,-2.098651
2175.210000,-2.073596
2178.210000,-2.058380
2181.211000,-2.043987
2184.211000,-2.014806
2187.211000,-2.000015
2190.209000,-1.976481
2193.209000,-1.955662
2196.209000,-1.937465
2199.209000,-1.917806
2202.210000,-1.904099
2205.208000,-1.889094
2208.208000,-1.866144
2211.208000,-1.848719
2214.208000,-1.829811
2217.208000,-1.811240
2220.209000,-1.797010
2223.207000,-1.787913
2226.207000,-1.771840
2229.207000,-1.764191
2232.207000,-1.741024
2235.207000,-1.727042
2238.205000,-1.707542
2241.206000,-1.695655
2244.206000,-1.676227
2247.206000,-1.662428
2250.206000,-1.644792
2253.204000,-1.629103
2256.204000,-1.631891
2259.205000,-1.603318
2262.205000,-1.585461
2265.205000,-1.563755
2268.205000,-1.544593
2271.203000,-1.532912
2274.203000,-1.516523
2277.203000,-1.505530
2280.203000,-1.484980
2283.203000,-1.474129
2286.203000,-1.461928
2289.203000,-1.446936
2292.201000,-1.433940
2295.201000,-1.416205
2298.202000,-1.405171
2301.202000,-1.381266
2304.202000,-1.376673
2307.202000,-1.360570
2310.200000,-1.347322
2313.200000,-1.334309
2316.200000,-1.322948
2319.201000,-1.313970
2322.201000,-1.307582
2325.199000,-1.293396
2328.199000,-1.294620
2331.199000,-1.306236
2334.199000,-1.275349
2337.200000,-1.264232
2340.198000,-1.259395
2343.198000,-1.256607
2346.198000,-1.249329
2349.197000,-1.251012
2352.197000,-1.235167
2355.198000,-1.235582
2358.198000,-1.219849
2361.198000,-1.224850
2364.196000,-1.215715
2367.196000,-1.220420
2370.196000,-1.220740
2373.196000,-1.210701
2376.197000,-1.213475
2379.195000,-1.227811
2382.195000,-1.227671
2385.195000,-1.209134
2388.195000,-1.219271
2391.195000,-1.232723
2394.196000,-1.237798
2397.194000,-1.237064
2400.194000,-1.242381
2403.194000,-1.240895
2406.194000,-1.246504
2409.194000,-1.250821
2412.192000,-1.243071
2415.193000,-1.246970
2418.193000,-1.263454
2421.193000,-1.267965
2424.193000,-1.276538
2427.191000,-1.278293
2430.191000,-1.289722
2433.192000,-1.295484
2436.192000,-1.302082
2439.192000,-1.308623
2442.192000,-1.313817
2445.190000,-1.326684
2448.190000,-1.335318
2451.190000,-1.346972
2454.191000,-1.355725
2457.191000,-1.367617
2460.189000,-1.369945
2463.189000,-1.385342
2466.189000,-1.396553
2469.189000,-1.407496
2472.190000,-1.419513
2475.188000,-1.425068
2478.188000,-1.440613
2481.188000,-1.452148
2484.188000,-1.467364
2487.188000,-1.481975
2490.188000,-1.491340
2493.187000,-1.509531
2496.187000,-1.520943
2499.187000,-1.535452
2502.187000,-1.550610
2505.187000,-1.563076
2508.185000,-1.575725
2511.186000,-1.590295
2514.186000,-1.602472
2517.186000,-1.615801
2520.186000,-1.628488
2523.184000,-1.645951
2526.184000,-1.656540
2529.184000,-1.668955
2532.185000,-1.683855
2535.185000,-1.700121
2538.185000,-1.713437
2541.183000,-1.727579
2544.183000,-1.739344
2547.183000,-1.755023
2550.184000,-1.764888
2553.184000,-1.779676
2556.182000,-1.784856
2559.182000,-1.803023
2562.182000,-1.816267
2565.182000,-1.829930
2568.182000,-1.842406
2571.181000,-1.855059
2574.181000,-1.867443
2577.181000,-1.882445
2580.181000,-1.895329
2583.181000,-1.910395
2586.181000,-1.922569
2589.180000,-1.931992
2592.180000,-1.944444
2595.180000,-1.958712
2598.180000,-1.972911
2601.180000,-1.986370
2604.178000,-2.001239
2607.178000,-2.010163
2610.179000,-2.020524
2613.179000,-2.030264
2616.179000,-2.042964
2619.177000,-2.056861
2622.177000,-2.068633
2625.177000,-2.074847
2628.178000,-2.090675
2631.178000,-2.104351
2634.176000,-2.111691
2637.176000,-2.121794
2640.176000,-2.132309
2643.176000,-2.139468
2646.176000,-2.148266
2649.177000,-2.154929
2652.175000,-2.165253
2655.175000,-2.172483
2658.175000,-2.178633
2661.175000,-2.187618
2664.175000,-2.191303
2667.174000,-2.194084
2670.174000,-2.205462
2673.174000,-2.210789
