Time(s),Position(V)
0.340000,1.706819
3.354000,1.739980
6.354000,1.772721
9.353000,1.806477
12.353000,1.833404
15.354000,1.866722
18.354000,1.887010
21.352000,1.897974
24.352000,1.894924
27.352000,1.887541
30.352000,1.864588
33.353000,1.836185
36.351000,1.807507
39.351000,1.764120
42.351000,1.714896
45.351000,1.673290
48.351000,1.622726
51.352000,1.575671
54.350000,1.526362
57.350000,1.483562
60.350000,1.451798
63.350000,1.411569
66.350000,1.374378
69.348000,1.343909
72.349000,1.319120
75.349000,1.285163
78.349000,1.248357
81.349000,1.215233
84.347000,1.172331
87.347000,1.129284
90.348000,1.078061
93.348000,1.017268
96.348000,0.952135
99.348000,0.876218
102.346000,0.796885
105.346000,0.718735
108.346000,0.628445
111.347000,0.538791
114.347000,0.448355
117.345000,0.363875
120.345000,0.272212
123.345000,0.187654
126.345000,0.105394
129.346000,0.030102
132.344000,-0.045243
135.344000,-0.119484
138.344000,-0.188925
141.344000,-0.258519
144.344000,-0.326909
147.342000,-0.401575
150.343000,-0.476111
153.343000,-0.556057
156.343000,-0.638585
159.343000,-0.726703
162.343000,-0.815041
165.341000,-0.909393
168.342000,-1.005625
171.342000,-1.103111
174.342000,-1.202192
177.342000,-1.306913
180.340000,-1.410600
183.340000,-1.511312
186.340000,-1.614244
189.341000,-1.708287
192.341000,-1.791281
195.339000,-1.873820
198.339000,-1.953052
201.339000,-2.034153
204.339000,-2.118262
207.340000,-2.208372
210.340000,-2.290047
213.338000,-2.362252
216.338000,-2.429877
219.338000,-2.495691
222.338000,-2.566831
225.338000,-2.646953
228.338000,-2.737729
231.338000,-2.834202
234.338000,-2.918159
237.336000,-2.987912
240.336000,-3.057591
243.336000,-3.137985
246.337000,-3.230355
249.337000,-3.328134
252.335000,-3.402884
255.335000,-3.460070
258.335000,-3.515546
261.335000,-3.569642
264.335000,-3.634605
267.334000,-3.712518
270.334000,-3.774473
273.334000,-3.819679
276.334000,-3.857923
279.334000,-3.894117
282.332000,-3.926527
285.333000,-3.961973
288.333000,-4.001050
291.333000,-4.052926
294.333000,-4.107576
297.333000,-4.159149
300.331000,-4.199412
303.331000,-4.236147
306.332000,-4.266028
309.332000,-4.293849
312.332000,-4.324155
315.330000,-4.354373
318.330000,-4.382392
321.330000,-4.413167
324.331000,-4.440584
327.331000,-4.467164
330.329000,-4.483342
333.329000,-4.493924
336.329000,-4.502770
339.329000,-4.505214
342.330000,-4.498969
345.330000,-4.497773
348.328000,-4.492065
351.329000,-4.488587
354.327000,-4.471774
357.327000,-4.464818
360.327000,-4.448253
363.328000,-4.434060
366.328000,-4.428505
369.328000,-4.411416
372.326000,-4.395391
375.326000,-4.384380
378.326000,-4.363749
381.326000,-4.350600
384.327000,-4.325899
387.325000,-4.307141
390.325000,-4.285174
393.325000,-4.258359
396.325000,-4.231976
399.325000,-4.199337
402.324000,-4.159567
405.324000,-4.113083
408.324000,-4.057634
411.324000,-3.992480
414.324000,-3.936610
417.322000,-3.897074
420.323000,-3.855601
423.323000,-3.812180
426.323000,-3.768153
429.323000,-3.718647
432.323000,-3.656481
435.321000,-3.589933
438.321000,-3.532873
441.322000,-3.484941
444.322000,-3.439694
447.322000,-3.395290
450.320000,-3.354286
453.320000,-3.289529
456.320000,-3.216737
459.321000,-3.138821
462.321000,-3.068034
465.319000,-3.012718
468.319000,-2.950161
471.319000,-2.890980
474.319000,-2.821053
477.319000,-2.747244
480.320000,-2.659633
483.318000,-2.582836
486.318000,-2.509040
489.318000,-2.453904
492.318000,-2.393751
495.318000,-2.328702
498.317000,-2.260162
501.317000,-2.189583
504.317000,-2.116773
507.317000,-2.039276
510.317000,-1.970831
513.315000,-1.900275
516.315000,-1.836559
519.316000,-1.778411
522.316000,-1.715531
525.316000,-1.653369
528.314000,-1.585645
531.314000,-1.514106
534.314000,-1.442571
537.315000,-1.368681
540.315000,-1.296279
543.315000,-1.227899
546.313000,-1.156435
549.313000,-1.089894
552.313000,-1.028871
555.313000,-0.972582
558.314000,-0.912327
561.312000,-0.857898
564.312000,-0.798091
567.312000,-0.745430
570.312000,-0.695676
573.312000,-0.639564
576.311000,-0.585628
579.311000,-0.532152
582.311000,-0.481017
585.311000,-0.433523
588.311000,-0.384207
591.311000,-0.337345
594.309000,-0.293214
597.310000,-0.244802
600.310000,-0.200116
603.310000,-0.155580
606.310000,-0.113205
609.308000,-0.081091
612.308000,-0.035963
615.309000,-0.003512
618.309000,0.037928
621.309000,0.069210
624.307000,0.098799
627.307000,0.131967
630.307000,0.152932
633.307000,0.179213
636.308000,0.202557
639.308000,0.220931
642.306000,0.238547
645.306000,0.256041
648.306000,0.273273
651.306000,0.284168
654.307000,0.298847
657.305000,0.304769
660.305000,0.312479
663.305000,0.323670
666.305000,0.328704
669.305000,0.332134
672.303000,0.337917
675.304000,0.336961
678.304000,0.346031
681.304000,0.343352
684.304000,0.335279
687.302000,0.328391
690.302000,0.313124
693.303000,0.305941
696.303000,0.293754
699.303000,0.273262
702.303000,0.259229
705.301000,0.241552
708.301000,0.222563
711.301000,0.202649
714.302000,0.183207
717.302000,0.163031
720.300000,0.135499
723.300000,0.110704
726.301000,0.086853
729.299000,0.057750
732.300000,0.029025
735.300000,-0.001003
738.300000,-0.032094
741.300000,-0.063733
744.298000,-0.096966
747.298000,-0.132032
750.298000,-0.165441
753.299000,-0.201874
756.299000,-0.240107
759.297000,-0.282522
762.297000,-0.321976
765.297000,-0.362865
768.297000,-0.407908
771.298000,-0.452594
774.296000,-0.498385
777.296000,-0.543224
780.296000,-0.593257
783.296000,-0.642291
786.296000,-0.690301
789.297000,-0.740008
792.295000,-0.786724
795.295000,-0.834126
798.295000,-0.883588
801.295000,-0.933053
804.295000,-0.984018
807.293000,-1.036003
810.294000,-1.081957
813.294000,-1.134339
816.294000,-1.184882
819.294000,-1.238053
822.292000,-1.292322
825.292000,-1.346591
828.293000,-1.401775
831.293000,-1.455670
834.293000,-1.514994
837.293000,-1.572336
840.291000,-1.625449
843.292000,-1.679368
846.292000,-1.731441
849.291000,-1.780825
852.291000,-1.828642
855.291000,-1.876135
858.291000,-1.927732
861.291000,-1.977099
864.289000,-2.028635
867.290000,-2.082976
870.290000,-2.136391
873.290000,-2.193047
876.290000,-2.247805
879.288000,-2.299820
882.288000,-2.346900
885.288000,-2.392231
888.289000,-2.435503
891.289000,-2.473241
894.289000,-2.511216
897.287000,-2.550769
900.287000,-2.592936
903.287000,-2.635626
906.288000,-2.683912
909.286000,-2.732636
912.286000,-2.777084
915.286000,-2.822889
918.286000,-2.860793
921.286000,-2.900271
924.286000,-2.928364
927.285000,-2.959969
930.285000,-2.988028
933.285000,-3.012541
936.285000,-3.037898
939.285000,-3.063390
942.283000,-3.089189
945.284000,-3.116816
948.284000,-3.143815
951.284000,-3.174026
954.284000,-3.201905
957.284000,-3.229485
960.282000,-3.252594
963.282000,-3.277533
966.283000,-3.299799
969.283000,-3.322123
972.283000,-3.337720
975.281000,-3.353956
978.281000,-3.367999
981.281000,-3.376341
984.282000,-3.381203
987.281000,-3.396534
990.281000,-3.400495
993.281000,-3.397714
996.281000,-3.407130
999.279000,-3.409999
1002.279000,-3.402657
1005.280000,-3.402813
1008.280000,-3.412026
1011.280000,-3.403408
1014.278000,-3.391017
1017.278000,-3.387808
1020.278000,-3.380302
1023.279000,-3.372150
1026.279000,-3.373860
1029.277000,-3.361159
1032.277000,-3.354000
1035.277000,-3.333896
1038.277000,-3.322987
1041.277000,-3.304344
1044.278000,-3.282951
1047.276000,-3.268004
1050.276000,-3.244939
1053.276000,-3.219806
1056.276000,-3.194300
1059.276000,-3.163052
1062.275000,-3.138063
1065.275000,-3.109103
1068.275000,-3.081057
1071.275000,-3.058216
1074.275000,-3.032799
1077.273000,-3.010117
1080.273000,-2.984982
1083.274000,-2.963358
1086.274000,-2.929900
1089.274000,-2.902028
1092.274000,-2.873809
1095.272000,-2.842238
1098.272000,-2.805144
1101.273000,-2.767936
1104.273000,-2.726307
1107.273000,-2.684089
1110.271000,-2.644329
1113.271000,-2.603498
1116.271000,-2.563935
1119.271000,-2.530491
1122.272000,-2.493828
1125.270000,-2.459632
1128.270000,-2.424112
1131.270000,-2.386656
1134.270000,-2.354382
1137.270000,-2.315529
1140.269000,-2.273016
1143.269000,-2.227466
1146.269000,-2.184127
1149.269000,-2.134049
1152.269000,-2.090648
1155.268000,-2.045044
1158.269000,-1.999437
1161.269000,-1.955251
1164.267000,-1.919485
1167.267000,-1.872294
1170.267000,-1.834492
1173.267000,-1.796625
1176.267000,-1.760146
1179.267000,-1.722758
1182.267000,-1.688404
1185.267000,-1.645615
1188.265000,-1.606500
1191.265000,-1.565969
1194.265000,-1.521279
1197.266000,-1.480730
1200.266000,-1.443326
1203.266000,-1.399286
1206.264000,-1.357690
1209.264000,-1.319695
1212.264000,-1.283677
1215.264000,-1.244233
1218.265000,-1.207526
1221.264000,-1.172821
1224.264000,-1.139394
1227.264000,-1.110821
1230.262000,-1.072142
1233.262000,-1.043801
1236.263000,-1.021875
1239.263000,-0.984334
1242.262000,-0.964733
1245.262000,-0.928114
1248.262000,-0.909815
1251.262000,-0.873145
1254.260000,-0.851613
1257.261000,-0.827973
1260.261000,-0.800498
1263.261000,-0.778422
1266.261000,-0.754470
1269.259000,-0.734620
1272.259000,-0.709138
1275.260000,-0.684192
1278.260000,-0.668592
1281.260000,-0.644749
1284.258000,-0.636134
1287.258000,-0.611764
1290.258000,-0.600671
1293.258000,-0.585989
1296.259000,-0.570565
1299.257000,-0.563892
1302.257000,-0.546120
1305.257000,-0.546674
1308.257000,-0.530812
1311.257000,-0.520791
1314.258000,-0.518554
1317.256000,-0.506275
1320.256000,-0.498375
1323.256000,-0.500390
1326.256000,-0.495839
1329.256000,-0.496015
1332.254000,-0.486157
1335.255000,-0.497307
1338.255000,-0.499785
1341.255000,-0.496080
1344.255000,-0.502665
1347.253000,-0.515294
1350.253000,-0.519434
1353.254000,-0.527651
1356.254000,-0.538529
1359.254000,-0.549897
1362.254000,-0.560693
1365.252000,-0.574363
1368.252000,-0.585414
1371.252000,-0.599648
1374.253000,-0.613487
1377.253000,-0.629597
1380.251000,-0.642437
1383.251000,-0.654423
1386.251000,-0.661841
1389.251000,-0.691580
1392.252000,-0.713095
1395.250000,-0.729922
1398.250000,-0.750234
1401.250000,-0.769954
1404.250000,-0.791609
1407.250000,-0.809316
1410.248000,-0.831223
1413.249000,-0.854495
1416.249000,-0.880593
1419.249000,-0.908754
1422.249000,-0.930990
1425.249000,-0.953488
1428.247000,-0.978416
1431.248000,-1.006723
1434.248000,-1.037159
1437.247000,-1.059218
1440.247000,-1.087926
1443.246000,-1.120163
1446.246000,-1.145190
1449.246000,-1.171566
1452.247000,-1.204157
1455.247000,-1.234286
1458.245000,-1.264899
1461.245000,-1.296014
1464.245000,-1.325759
1467.245000,-1.360797
1470.246000,-1.389808
1473.246000,-1.423018
1476.244000,-1.452134
1479.244000,-1.487557
1482.244000,-1.522568
1485.244000,-1.554635
1488.244000,-1.586070
1491.243000,-1.618092
1494.243000,-1.650792
1497.243000,-1.680071
1500.243000,-1.712917
1503.243000,-1.743454
1506.241000,-1.773397
1509.242000,-1.798866
1512.242000,-1.830117
1515.241000,-1.856347
1518.241000,-1.884495
1521.241000,-1.914695
1524.241000,-1.942483
1527.242000,-1.972432
1530.240000,-2.000212
1533.240000,-2.028669
1536.240000,-2.060274
1539.240000,-2.090842
1542.240000,-2.121101
1545.238000,-2.151753
1548.239000,-2.184184
1551.239000,-2.215745
1554.238000,-2.243236
1557.238000,-2.271115
1560.238000,-2.298420
1563.238000,-2.321995
1566.238000,-2.346655
1569.238000,-2.367976
1572.238000,-2.388971
1575.238000,-2.410014
1578.236000,-2.430214
1581.236000,-2.446324
1584.236000,-2.464820
1587.237000,-2.482623
1590.237000,-2.501103
1593.237000,-2.516618
1596.235000,-2.532024
1599.235000,-2.548528
1602.235000,-2.560144
1605.236000,-2.578189
1608.236000,-2.591341
1611.234000,-2.605347
1614.234000,-2.620325
1617.234000,-2.632060
1620.234000,-2.644087
1623.234000,-2.659330
1626.233000,-2.673044
1629.233000,-2.679357
1632.233000,-2.694498
1635.233000,-2.702816
1638.233000,-2.712420
1641.231000,-2.720252
1644.232000,-2.725137
1647.232000,-2.730107
1650.232000,-2.739735
1653.232000,-2.741308
1656.232000,-2.737834
1659.230000,-2.747631
1662.230000,-2.724692
1665.231000,-2.732548
1668.231000,-2.747931
1671.231000,-2.740465
1674.229000,-2.724485
1677.229000,-2.738993
1680.229000,-2.719192
1683.230000,-2.711539
1686.230000,-2.718620
1689.228000,-2.695783
1692.228000,-2.701858
1695.228000,-2.684969
1698.228000,-2.669043
1701.228000,-2.664600
1704.229000,-2.646922
1707.227000,-2.635952
1710.227000,-2.624605
1713.227000,-2.608060
1716.227000,-2.597671
1719.227000,-2.589591
1722.226000,-2.571981
1725.226000,-2.559879
1728.226000,-2.544330
1731.226000,-2.528393
1734.226000,-2.514993
1737.224000,-2.500695
1740.224000,-2.490931
1743.225000,-2.474594
1746.225000,-2.459350
1749.225000,-2.442999
1752.223000,-2.428483
1755.223000,-2.411404
1758.223000,-2.391344
1761.224000,-2.374473
1764.224000,-2.360055
1767.224000,-2.338962
1770.222000,-2.316304
1773.222000,-2.304746
1776.222000,-2.272424
1779.222000,-2.255270
1782.223000,-2.225794
1785.221000,-2.202229
1788.221000,-2.178116
1791.221000,-2.150370
1794.221000,-2.124435
1797.221000,-2.100677
1800.220000,-2.074225
1803.220000,-2.050983
1806.220000,-2.026106
1809.220000,-1.998213
1812.220000,-1.975563
1815.220000,-1.948870
1818.218000,-1.927321
1821.219000,-1.904735
1824.219000,-1.878022
1827.219000,-1.853950
1830.219000,-1.832490
1833.217000,-1.814762
1836.217000,-1.789830
1839.218000,-1.771225
1842.218000,-1.748890
1845.218000,-1.730407
1848.216000,-1.706203
1851.216000,-1.687577
1854.216000,-1.662367
1857.216000,-1.647729
1860.217000,-1.620887
1863.215000,-1.601211
1866.215000,-1.577455
1869.215000,-1.551303
1872.215000,-1.529747
1875.215000,-1.513178
1878.216000,-1.488481
1881.214000,-1.471514
1884.214000,-1.448789
1887.214000,-1.425421
1890.214000,-1.406442
1893.214000,-1.381871
1896.212000,-1.369259
1899.213000,-1.358727
1902.213000,-1.339547
1905.213000,-1.311379
1908.213000,-1.297323
1911.211000,-1.282957
1914.211000,-1.261696
1917.212000,-1.245783
1920.212000,-1.229748
1923.212000,-1.213703
1926.211000,-1.221984
1929.211000,-1.192035
1932.211000,-1.180388
1935.210000,-1.165257
1938.210000,-1.158183
1941.210000,-1.160307
1944.210000,-1.134489
1947.210000,-1.124171
1950.210000,-1.130569
1953.208000,-1.113296
1956.209000,-1.101259
1959.209000,-1.094558
1962.209000,-1.107068
1965.209000,-1.081440
1968.208000,-1.070888
1971.208000,-1.075328
1974.209000,-1.069882
1977.207000,-1.079737
1980.207000,-1.059884
1983.207000,-1.053724
1986.207000,-1.053126
1989.207000,-1.075464
1992.205000,-1.076558
1995.206000,-1.076837
1998.206000,-1.071211
2001.206000,-1.060210
2004.206000,-1.058918
2007.204000,-1.079101
2010.204000,-1.059020
2013.205000,-1.085033
2016.205000,-1.087379
2019.205000,-1.094004
2022.203000,-1.099936
2025.203000,-1.108071
2028.203000,-1.115703
2031.203000,-1.122631
2034.204000,-1.125966
2037.204000,-1.113830
2040.202000,-1.130661
2043.202000,-1.151856
2046.202000,-1.159655
2049.202000,-1.168296
2052.203000,-1.177478
2055.201000,-1.184148
2058.201000,-1.200115
2061.201000,-1.210246
2064.201000,-1.223272
2067.201000,-1.238111
2070.199000,-1.249044
2073.200000,-1.261696
2076.200000,-1.275519
2079.200000,-1.291567
2082.200000,-1.305750
2085.200000,-1.319062
2088.198000,-1.337464
2091.199000,-1.351459
2094.199000,-1.368932
2097.199000,-1.382285
2100.199000,-1.397304
2103.197000,-1.417827
2106.197000,-1.432366
2109.197000,-1.450105
2112.198000,-1.465399
2115.198000,-1.485014
2118.196000,-1.503112
2121.196000,-1.522163
2124.196000,-1.542329
2127.196000,-1.560009
2130.197000,-1.578795
2133.195000,-1.597097
2136.195000,-1.614955
2139.195000,-1.633614
2142.195000,-1.647777
2145.195000,-1.652332
2148.195000,-1.686044
2151.194000,-1.705428
2154.194000,-1.723761
2157.194000,-1.739521
2160.194000,-1.755597
2163.194000,-1.773291
2166.192000,-1.787005
2169.193000,-1.806732
2172.193000,-1.823661
2175.193000,-1.838160
2178.193000,-1.854484
2181.191000,-1.869343
2184.191000,-1.888163
2187.191000,-1.903933
2190.192000,-1.923072
2193.192000,-1.938689
2196.192000,-1.955598
2199.190000,-1.969825
2202.190000,-1.983089
2205.190000,-2.001735
2208.191000,-2.019066
2211.191000,-2.034149
2214.189000,-2.050256
2217.189000,-2.065513
2220.189000,-2.080916
2223.189000,-2.100160
2226.189000,-2.112741
2229.188000,-2.127247
2232.189000,-2.142646
2235.189000,-2.155401
2238.187000,-2.169196
2241.187000,-2.184636
2244.187000,-2.194889
2247.188000,-2.208803
2250.188000,-2.221507
2253.186000,-2.230743
2256.186000,-2.244331
2259.186000,-2.252619
2262.186000,-2.263647
2265.187000,-2.271445
2268.185000,-2.282242
2271.185000,-2.291318
2274.185000,-2.291339
2277.185000,-2.304549
2280.185000,-2.311960
2283.185000,-2.312834
2286.184000,-2.322145
2289.184000,-2.330507
2292.184000,-2.330246
2295.184000,-2.332530
2298.184000,-2.340447
2301.182000,-2.342198
2304.183000,-2.345173
2307.183000,-2.344890
2310.183000,-2.348613
2313.183000,-2.350738
2316.183000,-2.336766
2319.181000,-2.347172
2322.181000,-2.349517
2325.182000,-2.337398
2328.182000,-2.344493
2331.182000,-2.337225
2334.180000,-2.342589
2337.180000,-2.331021
2340.180000,-2.326421
2343.181000,-2.333988
2346.181000,-2.327781
2349.179000,-2.311487
2352.179000,-2.312810
2355.179000,-2.312667
2358.179000,-2.305532
2361.179000,-2.297771
2364.178000,-2.288939
2367.178000,-2.274862
2370.178000,-2.284730
2373.178000,-2.267957
2376.178000,-2.263395
2379.176000,-2.246911
2382.177000,-2.247275
2385.177000,-2.226980
2388.177000,-2.219352
2391.176000,-2.219702
2394.176000,-2.198017
2397.176000,-2.192343
2400.176000,-2.175084
2403.177000,-2.162214
2406.175000,-2.149778
2409.175000,-2.138285
2412.175000,-2.128773
2415.175000,-2.112337
2418.175000,-2.102958
2421.174000,-2.088377
2424.174000,-2.074912
2427.174000,-2.064894
2430.174000,-2.048155
2433.174000,-2.030913
2436.172000,-2.024559
2439.172000,-2.005101
2442.173000,-2.000603
2445.173000,-1.979129
2448.173000,-1.964725
2451.173000,-1.946565
2454.171000,-1.943248
2457.171000,-1.921430
2460.172000,-1.922161
2463.172000,-1.900615
2466.172000,-1.886534
2469.170000,-1.872926
2472.170000,-1.857581
2475.170000,-1.845690
2478.170000,-1.829304
2481.171000,-1.817253
2484.169000,-1.807697
2487.169000,-1.793892
2490.169000,-1.784618
2493.169000,-1.773625
2496.169000,-1.759605
2499.168000,-1.749590
2502.168000,-1.746398
2505.169000,-1.722565
2508.167000,-1.714559
2511.167000,-1.699533
2514.167000,-1.688434
2517.167000,-1.677627
2520.168000,-1.662751
2523.166000,-1.651057
2526.166000,-1.642603
2529.166000,-1.632918
2532.166000,-1.625422
2535.166000,-1.610362
2538.167000,-1.600388
2541.165000,-1.582908
2544.165000,-1.568691
2547.165000,-1.555780
2550.165000,-1.544413
2553.165000,-1.536601
2556.163000,-1.527711
2559.164000,-1.518016
2562.164000,-1.510292
2565.164000,-1.496769
2568.164000,-1.490161
2571.163000,-1.489997
2574.163000,-1.474278
2577.164000,-1.464916
2580.162000,-1.455054
2583.162000,-1.448320
2586.162000,-1.453334
2589.162000,-1.441892
2592.162000,-1.429694
2595.160000,-1.422372
2598.161000,-1.417993
2601.161000,-1.414910
2604.161000,-1.406007
2607.161000,-1.395965
2610.161000,-1.395030
2613.159000,-1.389319
2616.160000,-1.389387
2619.160000,-1.400146
2622.160000,-1.376982
2625.160000,-1.373947
2628.158000,-1.384196
2631.158000,-1.376683
2634.159000,-1.387844
2637.159000,-1.375551
2640.159000,-1.368684
2643.157000,-1.380627
2646.157000,-1.375514
2649.157000,-1.363463
2652.157000,-1.374589
2655.158000,-1.385892
2658.158000,-1.389805
2661.156000,-1.384155
