Time(s),Position(V)
0.357000,0.997919
3.373000,0.986095
6.373000,0.974762
9.371000,0.962150
12.371000,0.951897
15.371000,0.937004
18.371000,0.925391
21.372000,0.913146
24.370000,0.901782
27.370000,0.892002
30.370000,0.880518
33.370000,0.868987
36.370000,0.856399
39.371000,0.844980
42.369000,0.831896
45.369000,0.826970
48.369000,0.812760
51.369000,0.802633
54.369000,0.790718
57.367000,0.774187
60.368000,0.769794
63.368000,0.748296
66.368000,0.702764
69.368000,0.739512
72.366000,0.715427
75.366000,0.703389
78.367000,0.681534
81.367000,0.661556
84.367000,0.635009
87.365000,0.605974
90.365000,0.578225
93.365000,0.548252
96.365000,0.514808
99.366000,0.485045
102.366000,0.450357
105.364000,0.414377
108.364000,0.373516
111.364000,0.331407
114.364000,0.288652
117.365000,0.245479
120.363000,0.205481
123.363000,0.157752
126.363000,0.109966
129.363000,0.065749
132.363000,0.018622
135.361000,-0.036429
138.362000,-0.084714
141.362000,-0.135778
144.402000,-0.191430
147.362000,-0.241851
150.362000,-0.298714
153.360000,-0.352062
156.361000,-0.409618
159.361000,-0.466559
162.361000,-0.519961
165.361000,-0.581454
168.359000,-0.640159
171.359000,-0.700024
174.359000,-0.759406
177.360000,-0.815415
180.360000,-0.872737
183.359000,-0.930371
186.359000,-0.993020
189.359000,-1.050828
192.357000,-1.108353
195.358000,-1.168181
198.358000,-1.232889
201.358000,-1.294148
204.358000,-1.354699
207.356000,-1.419707
210.356000,-1.480088
213.356000,-1.550413
216.357000,-1.613194
219.357000,-1.673606
222.355000,-1.727154
225.355000,-1.780458
228.355000,-1.829019
231.355000,-1.879708
234.356000,-1.934365
237.356000,-1.990446
240.354000,-2.048437
243.354000,-2.108788
246.354000,-2.170505
249.354000,-2.230842
252.354000,-2.280637
255.354000,-2.331898
258.353000,-2.377219
261.353000,-2.417238
264.353000,-2.460006
267.353000,-2.502625
270.351000,-2.542726
273.352000,-2.585725
276.352000,-2.632566
279.352000,-2.686105
282.352000,-2.737131
285.352000,-2.783234
288.350000,-2.829052
291.350000,-2.870995
294.351000,-2.903990
297.351000,-2.933572
300.351000,-2.962314
303.349000,-2.993079
306.349000,-3.017178
309.349000,-3.044146
312.350000,-3.072549
315.350000,-3.103745
318.350000,-3.130428
321.348000,-3.163637
324.348000,-3.197700
327.348000,-3.224518
330.348000,-3.253719
333.349000,-3.281078
336.347000,-3.307149
339.347000,-3.325931
342.347000,-3.339471
345.347000,-3.352062
348.347000,-3.368716
351.346000,-3.380713
354.346000,-3.390592
357.346000,-3.398591
360.346000,-3.397843
363.346000,-3.406423
366.344000,-3.409993
369.344000,-3.416928
372.345000,-3.412124
375.345000,-3.412359
378.345000,-3.413831
381.345000,-3.410003
384.343000,-3.407997
387.343000,-3.406287
390.344000,-3.401361
393.344000,-3.396969
396.344000,-3.387808
399.342000,-3.382743
402.342000,-3.366680
405.342000,-3.362907
408.343000,-3.340933
411.343000,-3.328406
414.341000,-3.313836
417.341000,-3.294153
420.341000,-3.271233
423.341000,-3.256116
426.341000,-3.224600
429.340000,-3.199648
432.340000,-3.166833
435.340000,-3.136605
438.340000,-3.107594
441.340000,-3.078246
444.340000,-3.053903
447.339000,-3.027761
450.340000,-3.003502
453.338000,-2.982663
456.338000,-2.956834
459.338000,-2.928085
462.338000,-2.904160
465.338000,-2.874673
468.339000,-2.845135
471.337000,-2.809036
474.337000,-2.771169
477.337000,-2.732881
480.337000,-2.688875
483.337000,-2.646137
486.336000,-2.604028
489.336000,-2.563931
492.336000,-2.527180
495.336000,-2.481851
498.335000,-2.449672
501.335000,-2.418914
504.335000,-2.379201
507.336000,-2.341239
510.334000,-2.306147
513.334000,-2.269059
516.334000,-2.228632
519.334000,-2.191371
522.334000,-2.152226
525.333000,-2.106843
528.333000,-2.062028
531.333000,-2.017131
534.333000,-1.977749
537.333000,-1.938872
540.333000,-1.899299
543.331000,-1.860205
546.332000,-1.824345
549.332000,-1.788249
552.332000,-1.754387
555.332000,-1.718302
558.331000,-1.685966
561.331000,-1.650537
564.330000,-1.617824
567.330000,-1.580168
570.330000,-1.544022
573.330000,-1.505224
576.330000,-1.466500
579.330000,-1.433257
582.328000,-1.396767
585.329000,-1.362215
588.329000,-1.324773
591.329000,-1.294447
594.329000,-1.258637
597.327000,-1.226216
600.327000,-1.192296
603.328000,-1.166219
606.328000,-1.137052
609.328000,-1.109061
612.326000,-1.081606
615.326000,-1.053371
618.326000,-1.033236
621.326000,-1.006754
624.327000,-0.983277
627.327000,-0.959841
630.325000,-0.940937
633.325000,-0.923266
636.325000,-0.898474
639.325000,-0.880851
642.326000,-0.863786
645.324000,-0.846214
648.324000,-0.830665
651.324000,-0.812998
654.324000,-0.801610
657.324000,-0.790109
660.322000,-0.778837
663.323000,-0.767364
666.323000,-0.759749
669.323000,-0.748639
672.323000,-0.738329
675.321000,-0.732142
678.321000,-0.723177
681.322000,-0.719843
684.322000,-0.717800
687.322000,-0.715746
690.322000,-0.707693
693.320000,-0.708543
696.320000,-0.710916
699.320000,-0.709804
702.321000,-0.708546
705.321000,-0.718347
708.319000,-0.714556
711.319000,-0.727831
714.319000,-0.725673
717.318000,-0.740630
720.319000,-0.742541
723.319000,-0.758552
726.319000,-0.761058
729.319000,-0.779211
732.317000,-0.784371
735.317000,-0.800655
738.318000,-0.808273
741.318000,-0.823985
744.318000,-0.836522
747.316000,-0.850277
750.316000,-0.868307
753.316000,-0.889714
756.316000,-0.909910
759.317000,-0.926805
762.317000,-0.947335
765.315000,-0.964335
768.315000,-0.989542
771.315000,-1.011482
774.314000,-1.034252
777.315000,-1.054108
780.315000,-1.080233
783.315000,-1.102510
786.315000,-1.126020
789.313000,-1.149348
792.313000,-1.179691
795.313000,-1.206312
798.314000,-1.235531
801.314000,-1.261108
804.312000,-1.292132
807.312000,-1.322057
810.312000,-1.353924
813.312000,-1.384295
816.313000,-1.415464
819.311000,-1.449105
822.311000,-1.480295
825.311000,-1.515544
828.311000,-1.548155
831.311000,-1.582823
834.311000,-1.613340
837.310000,-1.649221
840.310000,-1.677719
843.310000,-1.712914
846.310000,-1.743023
849.310000,-1.772843
852.308000,-1.801500
855.309000,-1.829859
858.309000,-1.855776
861.309000,-1.886096
864.309000,-1.920413
867.307000,-1.949023
870.307000,-1.982766
873.307000,-2.017665
876.308000,-2.051055
879.308000,-2.088265
882.308000,-2.122131
885.306000,-2.155908
888.306000,-2.189589
891.305000,-2.223438
894.306000,-2.257667
897.306000,-2.284839
900.305000,-2.315254
903.305000,-2.344166
906.305000,-2.364618
909.305000,-2.394410
912.305000,-2.416748
915.304000,-2.436866
918.304000,-2.461992
921.304000,-2.485356
924.304000,-2.508948
927.304000,-2.529236
930.302000,-2.549926
933.303000,-2.575768
936.303000,-2.602226
939.303000,-2.623769
942.303000,-2.647918
945.303000,-2.673295
948.301000,-2.700770
951.301000,-2.722931
954.302000,-2.746877
957.302000,-2.767828
960.302000,-2.787562
963.300000,-2.806480
966.300000,-2.826186
969.300000,-2.841321
972.301000,-2.854708
975.301000,-2.868414
978.299000,-2.882036
981.299000,-2.893142
984.299000,-2.901121
987.299000,-2.905662
990.299000,-2.920436
993.300000,-2.926899
996.298000,-2.925080
999.298000,-2.935006
1002.298000,-2.933555
1005.298000,-2.943984
1008.298000,-2.949889
1011.297000,-2.948621
1014.297000,-2.955668
1017.297000,-2.954213
1020.297000,-2.946731
1023.297000,-2.959608
1026.295000,-2.952772
1029.295000,-2.955179
1032.296000,-2.950702
1035.296000,-2.949957
1038.296000,-2.941989
1041.294000,-2.938715
1044.294000,-2.933449
1047.294000,-2.930682
1050.295000,-2.928755
1053.295000,-2.919801
1056.295000,-2.918485
1059.293000,-2.907892
1062.293000,-2.899825
1065.293000,-2.885350
1068.293000,-2.879017
1071.294000,-2.865120
1074.292000,-2.854014
1077.292000,-2.836249
1080.293000,-2.825826
1083.291000,-2.807479
1086.291000,-2.794364
1089.292000,-2.777156
1092.292000,-2.759819
1095.292000,-2.741482
1098.290000,-2.721428
1101.290000,-2.697942
1104.290000,-2.675247
1107.290000,-2.651733
1110.290000,-2.629432
1113.290000,-2.604429
1116.290000,-2.585569
1119.290000,-2.559590
1122.288000,-2.538361
1125.288000,-2.515843
1128.289000,-2.488290
1131.289000,-2.470868
1134.289000,-2.450858
1137.287000,-2.428524
1140.287000,-2.406604
1143.287000,-2.385636
1146.288000,-2.361538
1149.288000,-2.342042
1152.288000,-2.318470
1155.286000,-2.297509
1158.286000,-2.273988
1161.286000,-2.249032
1164.286000,-2.223948
1167.287000,-2.198330
1170.286000,-2.173632
1173.286000,-2.145390
1176.284000,-2.117670
1179.284000,-2.088993
1182.284000,-2.060713
1185.285000,-2.029213
1188.285000,-2.003625
1191.285000,-1.974829
1194.283000,-1.947279
1197.283000,-1.924799
1200.283000,-1.901067
1203.283000,-1.877495
1206.284000,-1.855157
1209.282000,-1.830909
1212.282000,-1.808993
1215.282000,-1.784775
1218.282000,-1.764171
1221.282000,-1.745807
1224.283000,-1.727321
1227.281000,-1.703895
1230.281000,-1.686496
1233.281000,-1.662884
1236.281000,-1.644068
1239.281000,-1.623100
1242.279000,-1.607911
1245.280000,-1.583129
1248.280000,-1.561923
1251.280000,-1.541363
1254.280000,-1.524549
1257.278000,-1.503945
1260.278000,-1.481448
1263.279000,-1.461840
1266.279000,-1.448905
1269.279000,-1.428008
1272.277000,-1.411480
1275.277000,-1.395387
1278.277000,-1.376041
1281.277000,-1.362310
1284.278000,-1.347890
1287.278000,-1.330525
1290.276000,-1.319613
1293.276000,-1.303884
1296.276000,-1.299260
1299.276000,-1.282348
1302.277000,-1.269858
1305.275000,-1.256475
1308.276000,-1.249842
1311.276000,-1.240293
1314.274000,-1.241871
1317.274000,-1.232209
1320.274000,-1.216354
1323.275000,-1.207747
1326.275000,-1.200336
1329.273000,-1.199853
1332.273000,-1.192470
1335.273000,-1.194560
1338.273000,-1.188700
1341.274000,-1.183658
1344.272000,-1.177356
1347.272000,-1.193571
1350.272000,-1.176411
1353.272000,-1.185440
1356.272000,-1.176465
1359.272000,-1.192368
1362.271000,-1.192629
1365.272000,-1.194095
1368.270000,-1.193014
1371.270000,-1.199612
1374.270000,-1.207315
1377.270000,-1.203389
1380.271000,-1.216004
1383.271000,-1.228973
1386.269000,-1.219944
1389.269000,-1.238182
1392.269000,-1.247572
1395.269000,-1.246535
1398.269000,-1.262590
1401.268000,-1.273530
1404.268000,-1.282909
1407.268000,-1.292924
1410.268000,-1.304479
1413.268000,-1.312624
1416.266000,-1.327452
1419.267000,-1.339082
1422.267000,-1.355583
1425.267000,-1.363935
1428.267000,-1.376282
1431.265000,-1.396601
1434.265000,-1.406177
1437.265000,-1.422943
1440.266000,-1.439250
1443.266000,-1.450955
1446.266000,-1.470416
1449.264000,-1.488420
1452.264000,-1.511570
1455.264000,-1.529030
1458.265000,-1.545310
1461.265000,-1.565550
1464.263000,-1.581232
1467.263000,-1.600218
1470.263000,-1.614897
1473.263000,-1.635664
1476.263000,-1.655045
1479.262000,-1.670036
1482.262000,-1.688376
1485.262000,-1.706037
1488.262000,-1.723724
1491.262000,-1.742285
1494.262000,-1.761070
1497.261000,-1.774893
1500.261000,-1.792485
1503.261000,-1.809142
1506.261000,-1.826524
1509.261000,-1.843942
1512.259000,-1.862259
1515.260000,-1.882037
1518.260000,-1.901210
1521.260000,-1.918537
1524.260000,-1.937723
1527.258000,-1.953694
1530.258000,-1.975372
1533.258000,-1.993917
1536.259000,-2.014711
1539.259000,-2.033126
1542.257000,-2.053295
1545.257000,-2.071472
1548.257000,-2.091702
1551.257000,-2.112626
1554.258000,-2.130249
1557.258000,-2.149870
1560.256000,-2.168622
1563.256000,-2.189008
1566.256000,-2.207076
1569.256000,-2.226035
1572.256000,-2.241282
1575.255000,-2.259248
1578.256000,-2.273988
1581.256000,-2.285818
1584.254000,-2.305011
1587.254000,-2.316763
1590.254000,-2.332204
1593.255000,-2.343571
1596.255000,-2.355072
1599.253000,-2.362024
1602.253000,-2.373929
1605.253000,-2.386218
1608.253000,-2.385113
1611.253000,-2.401879
1614.254000,-2.412502
1617.252000,-2.421120
1620.252000,-2.431730
1623.252000,-2.437873
1626.252000,-2.439705
1629.252000,-2.443550
1632.251000,-2.461757
1635.251000,-2.455951
1638.251000,-2.471782
1641.250000,-2.477694
1644.250000,-2.481396
1647.250000,-2.489262
1650.250000,-2.488314
1653.251000,-2.486342
1656.249000,-2.504784
1659.249000,-2.503370
1662.249000,-2.506178
1665.249000,-2.504730
1668.249000,-2.495640
1671.248000,-2.509373
1674.248000,-2.511281
1677.248000,-2.513188
1680.248000,-2.513283
1683.248000,-2.495279
1686.248000,-2.504349
1689.246000,-2.498291
1692.247000,-2.495011
1695.247000,-2.498804
1698.247000,-2.486995
1701.247000,-2.485101
1704.245000,-2.477673
1707.245000,-2.477252
1710.246000,-2.472625
1713.246000,-2.468937
1716.246000,-2.464460
1719.244000,-2.461754
1722.244000,-2.453898
1725.244000,-2.450111
1728.244000,-2.443774
1731.245000,-2.435299
1734.243000,-2.435180
1737.243000,-2.426552
1740.243000,-2.421232
1743.243000,-2.412931
1746.243000,-2.399034
1749.242000,-2.392092
1752.242000,-2.382427
1755.242000,-2.373205
1758.242000,-2.360888
1761.242000,-2.351975
1764.242000,-2.339451
1767.240000,-2.325704
1770.241000,-2.311532
1773.241000,-2.301721
1776.241000,-2.288925
1779.241000,-2.276707
1782.239000,-2.267019
1785.239000,-2.255406
1788.240000,-2.247217
1791.240000,-2.227657
1794.240000,-2.211567
1797.238000,-2.196157
1800.238000,-2.183368
1803.238000,-2.167510
1806.238000,-2.151478
1809.239000,-2.136585
1812.239000,-2.119244
1815.237000,-2.104355
1818.237000,-2.087864
1821.237000,-2.068650
1824.237000,-2.050208
1827.238000,-2.032582
1830.236000,-2.018580
1833.236000,-2.000233
1836.236000,-1.983120
1839.236000,-1.967795
1842.236000,-1.951481
1845.234000,-1.937380
1848.235000,-1.922293
1851.235000,-1.907210
1854.235000,-1.892432
1857.235000,-1.880439
1860.235000,-1.863289
1863.233000,-1.858751
1866.234000,-1.841216
1869.234000,-1.825579
1872.234000,-1.815591
1875.234000,-1.803659
1878.232000,-1.789429
1881.232000,-1.780750
1884.233000,-1.767686
1887.233000,-1.756226
1890.233000,-1.747731
1893.231000,-1.733681
1896.231000,-1.719107
1899.231000,-1.708491
1902.231000,-1.696994
1905.232000,-1.694308
1908.232000,-1.673249
1911.230000,-1.671372
1914.230000,-1.655772
1917.230000,-1.646543
1920.230000,-1.636942
1923.231000,-1.623936
1926.229000,-1.615414
1929.229000,-1.608142
1932.228000,-1.598284
1935.228000,-1.582840
1938.228000,-1.575460
1941.228000,-1.560798
1944.229000,-1.566761
1947.229000,-1.545341
1950.227000,-1.551830
1953.227000,-1.532701
1956.227000,-1.527191
1959.227000,-1.515541
1962.228000,-1.508800
1965.226000,-1.501304
1968.226000,-1.493376
1971.226000,-1.492241
1974.226000,-1.486156
1977.226000,-1.486564
1980.224000,-1.482842
1983.225000,-1.469318
1986.225000,-1.465222
1989.225000,-1.465066
1992.225000,-1.461619
1995.225000,-1.454980
1998.223000,-1.456468
2001.224000,-1.458566
2004.224000,-1.459008
2007.224000,-1.451923
2010.224000,-1.453589
2013.222000,-1.460816
2016.222000,-1.457057
2019.222000,-1.455275
2022.223000,-1.464923
2025.223000,-1.471521
2028.221000,-1.470467
2031.221000,-1.470386
2034.221000,-1.471936
2037.221000,-1.479571
2040.222000,-1.469655
2043.222000,-1.487009
2046.220000,-1.486272
2049.220000,-1.495766
2052.220000,-1.496412
2055.220000,-1.498975
2058.220000,-1.503221
2061.219000,-1.511013
2064.219000,-1.519879
2067.219000,-1.524281
2070.219000,-1.527922
2073.219000,-1.537569
2076.217000,-1.544396
2079.218000,-1.551630
2082.218000,-1.552323
2085.218000,-1.564299
2088.218000,-1.576262
2091.218000,-1.582208
2094.216000,-1.590812
2097.216000,-1.600374
2100.217000,-1.610991
2103.217000,-1.616838
2106.217000,-1.629542
2109.215000,-1.640957
2112.215000,-1.648609
2115.215000,-1.653494
2118.216000,-1.660321
2121.216000,-1.673694
2124.214000,-1.681288
2127.214000,-1.693265
2130.214000,-1.700924
2133.214000,-1.705000
2136.214000,-1.720603
2139.213000,-1.731519
2142.213000,-1.741258
2145.213000,-1.752507
2148.213000,-1.763392
2151.213000,-1.770327
2154.213000,-1.781845
2157.212000,-1.791394
2160.212000,-1.803608
2163.212000,-1.812045
2166.212000,-1.820377
2169.212000,-1.832554
2172.210000,-1.839955
2175.211000,-1.851700
2178.211000,-1.861191
2181.211000,-1.870530
2184.211000,-1.880687
2187.209000,-1.891583
2190.209000,-1.903198
2193.210000,-1.912782
2196.209000,-1.919319
2199.209000,-1.932308
2202.209000,-1.942955
2205.209000,-1.952851
2208.209000,-1.963352
2211.207000,-1.976209
2214.207000,-1.989021
2217.208000,-2.000892
2220.208000,-2.007793
2223.208000,-2.021221
2226.208000,-2.031922
2229.206000,-2.042325
2232.206000,-2.054420
2235.207000,-2.064194
2238.207000,-2.070156
2241.207000,-2.084645
2244.205000,-2.091495
2247.205000,-2.104304
2250.205000,-2.110035
2253.206000,-2.117667
2256.206000,-2.121400
2259.204000,-2.136089
2262.204000,-2.141198
2265.204000,-2.147827
2268.204000,-2.157114
2271.204000,-2.161490
2274.205000,-2.170267
2277.203000,-2.178653
2280.203000,-2.184263
2283.203000,-2.190599
2286.203000,-2.196711
2289.203000,-2.199839
2292.202000,-2.205815
2295.203000,-2.207579
2298.203000,-2.216840
2301.201000,-2.220392
2304.201000,-2.219756
2307.201000,-2.226562
2310.201000,-2.226032
2313.202000,-2.227436
2316.200000,-2.229730
2319.200000,-2.227640
2322.200000,-2.236149
2325.200000,-2.228007
2328.200000,-2.237481
2331.199000,-2.236618
2334.199000,-2.236397
2337.199000,-2.242387
2340.199000,-2.234683
2343.199000,-2.234653
2346.199000,-2.233463
2349.197000,-2.236512
2352.198000,-2.233623
2355.198000,-2.227082
2358.198000,-2.227847
2361.198000,-2.225974
2364.196000,-2.219155
2367.196000,-2.218356
2370.197000,-2.215918
2373.197000,-2.219335
2376.197000,-2.209041
2379.195000,-2.206604
2382.196000,-2.193359
2385.196000,-2.191388
2388.194000,-2.191439
2391.195000,-2.185541
2394.195000,-2.178402
2397.195000,-2.167082
2400.195000,-2.171103
2403.193000,-2.160075
2406.193000,-2.150951
2409.194000,-2.145804
2412.194000,-2.137690
2415.194000,-2.126849
2418.192000,-2.125846
2421.192000,-2.111314
2424.192000,-2.106000
2427.192000,-2.099772
2430.193000,-2.089615
2433.193000,-2.081752
2436.191000,-2.076646
2439.191000,-2.062484
2442.191000,-2.061035
2445.191000,-2.048549
2448.192000,-2.046649
2451.190000,-2.028469
2454.190000,-2.022486
2457.190000,-2.011278
2460.190000,-2.004934
2463.190000,-1.995021
2466.188000,-1.985340
2469.189000,-1.977803
2472.189000,-1.966377
2475.189000,-1.954398
2478.189000,-1.948078
2481.187000,-1.939763
2484.187000,-1.931948
2487.188000,-1.930564
2490.188000,-1.914852
2493.188000,-1.903093
2496.188000,-1.896804
2499.186000,-1.887898
2502.186000,-1.880439
2505.186000,-1.870044
2508.187000,-1.862741
2511.187000,-1.854773
2514.185000,-1.850153
2517.185000,-1.841145
2520.185000,-1.830402
2523.185000,-1.826340
2526.186000,-1.815047
2529.184000,-1.813735
2532.184000,-1.796574
2535.184000,-1.802734
2538.184000,-1.787052
2541.184000,-1.782127
2544.184000,-1.770358
2547.183000,-1.764701
2550.183000,-1.767519
2553.183000,-1.755658
2556.183000,-1.756807
2559.183000,-1.735374
2562.181000,-1.739106
2565.182000,-1.731196
2568.182000,-1.721270
2571.182000,-1.720450
2574.182000,-1.704245
2577.180000,-1.706625
2580.180000,-1.692830
2583.180000,-1.695134
2586.181000,-1.679222
2589.181000,-1.675948
2592.181000,-1.676903
2595.179000,-1.671253
2598.179000,-1.666477
2601.179000,-1.663349
2604.180000,-1.650965
2607.180000,-1.649707
2610.178000,-1.656527
2613.178000,-1.641001
2616.178000,-1.640957
2619.178000,-1.642252
2622.179000,-1.629535
2625.177000,-1.625435
2628.177000,-1.629878
2631.177000,-1.618011
2634.177000,-1.617096
2637.177000,-1.621067
2640.177000,-1.617841
2643.176000,-1.618052
2646.176000,-1.616158
2649.176000,-1.614557
2652.176000,-1.613670
2655.176000,-1.611385
